SpectraSuite Data File
++++++++++++++++++++++++++++++++++++
Date: Sat Feb 06 14:59:04 EST 2021
User: ChG
Dark Spectrum Present: Yes
Reference Spectrum Present: Yes
Number of Sampled Component Spectra: 1
Spectrometers: HR4C4306
Integration Time (usec): 39709 (HR4C4306)
Spectra Averaged: 20 (HR4C4306)
Boxcar Smoothing: 5 (HR4C4306)
Correct for Electrical Dark: Yes (HR4C4306)
Strobe/Lamp Enabled: No (HR4C4306)
Correct for Detector Non-linearity: No (HR4C4306)
Correct for Stray Light: No (HR4C4306)
Number of Pixels in Processed Spectrum: 3648
>>>>>Begin Processed Spectral Data<<<<<
195.21	20.732
195.48	-16.414
195.75	-16.414
196.02	105.261
196.29	-4.296
196.56	225.975
196.83	77.792
197.10	51.972
197.37	58.547
197.65	62.861
197.92	79.767
198.19	68.388
198.46	72.482
198.73	83.987
199.00	116.524
199.27	142.460
199.54	43.305
199.81	76.038
200.09	180.715
200.36	-8.794
200.63	-63.969
200.90	59.143
201.17	55.945
201.44	-50.054
201.71	217.599
201.98	-175.634
202.25	-675.541
202.52	477.845
202.79	191.590
203.07	91.390
203.34	151.341
203.61	147.202
203.88	218.331
204.15	231.604
204.42	167.144
204.69	178.891
204.96	173.457
205.23	158.873
205.50	117.771
205.77	128.701
206.05	177.141
206.32	142.715
206.59	110.681
206.86	92.506
207.13	89.695
207.40	103.504
207.67	90.849
207.94	82.701
208.21	6.017
208.48	18.737
208.75	-180.292
209.02	31.785
209.29	208.277
209.57	1058.361
209.84	-14.442
210.11	-1238.029
210.38	393.055
210.65	159.602
210.92	199.417
211.19	151.809
211.46	162.211
211.73	242.341
212.00	327.911
212.27	290.655
212.54	272.392
212.81	237.307
213.08	212.569
213.36	182.268
213.63	236.337
213.90	198.930
214.17	197.842
214.44	165.717
214.71	47.066
214.98	19.482
215.25	-26.031
215.52	-25.186
215.79	-76.435
216.06	1210.389
216.33	124.206
216.60	566.228
216.87	645.725
217.14	386.682
217.41	47.697
217.68	-1.654
217.95	-73.555
218.23	-105.412
218.50	-138.558
218.77	-112.766
219.04	-359.759
219.31	363.837
219.58	196.309
219.85	49.855
220.12	154.136
220.39	111.344
220.66	152.972
220.93	155.666
221.20	71.484
221.47	94.937
221.74	114.463
222.01	88.594
222.28	136.330
222.55	138.730
222.82	136.985
223.09	113.758
223.36	100.109
223.63	79.037
223.90	57.445
224.17	70.201
224.44	62.340
224.72	65.057
224.99	71.689
225.26	68.643
225.53	73.831
225.80	73.863
226.07	67.876
226.34	35.034
226.61	38.940
226.88	30.453
227.15	-0.930
227.42	89.910
227.69	78.217
227.96	115.049
228.23	106.714
228.50	416.260
228.77	520.219
229.04	423.345
229.31	512.335
229.58	530.398
229.85	490.953
230.12	2252.394
230.39	410.203
230.66	1459.445
230.93	2765.893
231.20	262.179
231.47	75.709
231.74	147.845
232.01	148.716
232.28	83.627
232.55	64.111
232.82	87.000
233.09	64.729
233.36	71.271
233.63	71.084
233.90	72.480
234.17	84.075
234.44	100.801
234.71	59.217
234.98	39.411
235.25	18.153
235.52	-51.993
235.79	-71.281
236.06	-99.511
236.33	-109.905
236.60	-49.769
236.87	1.644
237.14	-8.023
237.41	-12.871
237.68	-19.962
237.95	40.539
238.22	75.240
238.49	84.335
238.76	70.920
239.03	96.664
239.30	92.625
239.57	112.368
239.84	99.740
240.11	103.366
240.38	80.832
240.65	85.734
240.92	104.289
241.19	112.077
241.46	109.336
241.73	104.676
242.00	87.020
242.27	109.440
242.54	144.881
242.81	159.654
243.08	209.204
243.35	388.035
243.62	230.696
243.89	133.244
244.16	97.915
244.43	142.776
244.70	200.172
244.97	408.589
245.24	512.739
245.51	135.745
245.78	123.875
246.05	111.242
246.32	120.060
246.59	105.729
246.86	152.161
247.13	178.850
247.40	126.810
247.67	122.962
247.94	109.383
248.20	104.735
248.47	100.978
248.74	95.742
249.01	91.361
249.28	73.573
249.55	80.558
249.82	56.745
250.09	56.519
250.36	50.508
250.63	32.740
250.90	29.510
251.17	34.403
251.44	31.476
251.71	39.438
251.98	26.160
252.25	7.643
252.52	12.824
252.79	24.658
253.06	19.205
253.33	31.029
253.60	105.038
253.87	115.383
254.14	88.835
254.41	156.565
254.67	118.188
254.94	76.808
255.21	119.912
255.48	86.702
255.75	70.002
256.02	59.863
256.29	56.671
256.56	30.227
256.83	32.061
257.10	51.937
257.37	45.238
257.64	49.694
257.91	75.592
258.18	65.402
258.45	63.758
258.72	55.243
258.99	57.762
259.25	62.250
259.52	73.435
259.79	82.075
260.06	66.145
260.33	70.292
260.60	66.734
260.87	65.478
261.14	79.128
261.41	78.364
261.68	95.972
261.95	117.990
262.22	158.248
262.49	138.045
262.76	147.778
263.02	165.609
263.29	143.139
263.56	165.706
263.83	146.587
264.10	177.681
264.37	211.070
264.64	276.871
264.91	268.487
265.18	243.581
265.45	339.606
265.72	310.227
265.99	372.472
266.26	192.537
266.52	103.952
266.79	-321.230
267.06	336.543
267.33	171.503
267.60	87.745
267.87	90.557
268.14	67.662
268.41	76.180
268.68	80.755
268.95	77.801
269.22	80.112
269.48	76.078
269.75	61.579
270.02	49.079
270.29	48.277
270.56	41.264
270.83	41.286
271.10	53.264
271.37	48.592
271.64	42.926
271.91	49.627
272.18	64.120
272.44	84.821
272.71	76.654
272.98	75.535
273.25	74.347
273.52	85.489
273.79	79.223
274.06	74.130
274.33	67.715
274.60	63.658
274.86	63.123
275.13	60.319
275.40	59.636
275.67	68.163
275.94	76.042
276.21	73.133
276.48	59.077
276.75	59.686
277.02	67.435
277.28	75.703
277.55	88.179
277.82	66.830
278.09	62.489
278.36	51.316
278.63	68.394
278.90	42.310
279.17	27.936
279.44	117.131
279.70	94.491
279.97	67.326
280.24	49.014
280.51	44.697
280.78	53.797
281.05	60.971
281.32	70.255
281.59	62.201
281.85	60.092
282.12	63.926
282.39	57.176
282.66	61.036
282.93	62.700
283.20	70.776
283.47	60.511
283.73	64.646
284.00	69.341
284.27	64.706
284.54	38.251
284.81	42.039
285.08	41.059
285.35	40.350
285.62	38.389
285.88	40.120
286.15	53.130
286.42	63.465
286.69	70.643
286.96	76.653
287.23	84.183
287.50	95.982
287.76	98.239
288.03	88.250
288.30	93.195
288.57	98.678
288.84	98.805
289.11	91.619
289.37	85.074
289.64	82.702
289.91	72.657
290.18	64.132
290.45	68.008
290.72	57.376
290.99	64.008
291.25	67.641
291.52	64.905
291.79	63.731
292.06	68.465
292.33	73.603
292.60	67.588
292.86	76.502
293.13	81.405
293.40	80.687
293.67	83.320
293.94	87.624
294.21	67.855
294.47	70.855
294.74	68.302
295.01	83.878
295.28	91.876
295.55	117.854
295.82	132.164
296.08	119.481
296.35	141.867
296.62	150.457
296.89	138.348
297.16	165.938
297.43	194.994
297.69	178.000
297.96	120.153
298.23	110.161
298.50	105.402
298.77	87.673
299.04	80.761
299.30	59.789
299.57	59.031
299.84	72.322
300.11	73.910
300.38	64.103
300.64	65.177
300.91	67.300
301.18	68.182
301.45	68.862
301.72	73.080
301.99	86.933
302.25	84.151
302.52	90.164
302.79	84.013
303.06	76.277
303.33	70.941
303.59	71.685
303.86	69.986
304.13	78.108
304.40	65.988
304.67	66.786
304.93	57.980
305.20	57.460
305.47	55.563
305.74	51.469
306.01	53.132
306.27	51.800
306.54	44.222
306.81	43.749
307.08	33.739
307.35	32.352
307.61	21.108
307.88	18.455
308.15	13.069
308.42	4.427
308.69	-8.621
308.95	-20.200
309.22	-13.962
309.49	-11.751
309.76	-0.768
310.03	-5.353
310.29	7.374
310.56	28.085
310.83	32.897
311.10	54.352
311.37	68.461
311.63	84.371
311.90	82.618
312.17	91.337
312.44	98.159
312.70	94.271
312.97	91.912
313.24	81.154
313.51	74.904
313.78	77.683
314.04	68.260
314.31	68.925
314.58	66.555
314.85	64.717
315.12	58.392
315.38	47.905
315.65	46.408
315.92	45.778
316.19	55.959
316.45	53.123
316.72	37.492
316.99	58.966
317.26	66.677
317.52	71.591
317.79	80.817
318.06	76.839
318.33	73.454
318.60	65.701
318.86	79.685
319.13	74.415
319.40	76.267
319.67	85.282
319.93	68.178
320.20	60.350
320.47	52.813
320.74	45.444
321.00	38.847
321.27	37.081
321.54	46.115
321.81	35.715
322.07	33.156
322.34	33.995
322.61	23.835
322.88	21.072
323.14	27.823
323.41	30.346
323.68	34.498
323.95	41.345
324.21	41.622
324.48	41.170
324.75	41.324
325.02	41.661
325.28	40.722
325.55	45.190
325.82	51.113
326.09	48.946
326.35	50.140
326.62	52.800
326.89	55.043
327.16	64.060
327.42	67.172
327.69	64.610
327.96	61.011
328.23	60.051
328.49	59.004
328.76	49.855
329.03	43.083
329.30	46.892
329.56	51.462
329.83	43.975
330.10	44.422
330.36	42.272
330.63	37.111
330.90	32.449
331.17	29.158
331.43	27.465
331.70	27.501
331.97	26.176
332.24	22.020
332.50	15.806
332.77	23.893
333.04	17.560
333.30	14.392
333.57	18.700
333.84	23.798
334.11	26.921
334.37	28.603
334.64	28.453
334.91	32.656
335.17	31.740
335.44	26.884
335.71	24.318
335.98	26.879
336.24	28.135
336.51	25.943
336.78	24.301
337.04	23.000
337.31	19.556
337.58	18.468
337.85	14.920
338.11	15.183
338.38	16.384
338.65	15.283
338.91	13.104
339.18	11.508
339.45	12.871
339.72	12.846
339.98	11.254
340.25	10.907
340.52	12.525
340.78	11.465
341.05	10.474
341.32	10.547
341.58	9.564
341.85	8.591
342.12	8.625
342.39	8.004
342.65	8.443
342.92	10.069
343.19	11.078
343.45	9.693
343.72	11.887
343.99	11.862
344.25	11.461
344.52	11.099
344.79	11.600
345.05	12.206
345.32	11.561
345.59	9.556
345.85	7.880
346.12	7.555
346.39	6.826
346.66	5.047
346.92	5.051
347.19	4.216
347.46	5.835
347.72	5.752
347.99	5.152
348.26	5.118
348.52	5.542
348.79	5.691
349.06	5.335
349.32	6.106
349.59	5.899
349.86	5.861
350.12	6.050
350.39	5.366
350.66	5.452
350.92	5.091
351.19	4.868
351.46	4.922
351.72	5.263
351.99	5.523
352.26	5.586
352.52	5.425
352.79	5.484
353.06	6.084
353.32	6.572
353.59	6.142
353.86	6.256
354.12	6.659
354.39	6.981
354.66	6.339
354.92	5.801
355.19	5.165
355.46	5.566
355.72	5.125
355.99	4.530
356.26	4.166
356.52	3.898
356.79	3.967
357.06	3.768
357.32	3.008
357.59	2.972
357.86	2.603
358.12	2.382
358.39	1.835
358.65	1.474
358.92	1.961
359.19	1.805
359.45	1.909
359.72	1.385
359.99	1.514
360.25	2.022
360.52	2.080
360.79	2.424
361.05	3.114
361.32	3.309
361.59	3.434
361.85	2.895
362.12	2.952
362.38	3.124
362.65	3.093
362.92	2.919
363.18	2.831
363.45	3.053
363.72	2.776
363.98	2.381
364.25	2.354
364.52	2.467
364.78	2.533
365.05	2.418
365.31	2.163
365.58	2.486
365.85	2.431
366.11	2.050
366.38	1.710
366.65	1.958
366.91	1.794
367.18	1.779
367.44	1.890
367.71	1.710
367.98	1.897
368.24	2.223
368.51	2.438
368.77	2.625
369.04	2.973
369.31	2.895
369.57	2.825
369.84	2.703
370.11	2.726
370.37	2.727
370.64	2.906
370.90	2.729
371.17	2.625
371.44	2.598
371.70	2.274
371.97	2.040
372.23	2.052
372.50	1.854
372.77	1.964
373.03	2.154
373.30	2.121
373.56	2.058
373.83	2.079
374.10	2.048
374.36	2.147
374.63	2.274
374.89	2.381
375.16	2.610
375.43	2.908
375.69	2.892
375.96	2.703
376.22	2.682
376.49	2.457
376.76	2.340
377.02	2.394
377.29	2.160
377.55	2.332
377.82	2.317
378.09	2.070
378.35	1.957
378.62	1.955
378.88	2.077
379.15	1.984
379.41	2.184
379.68	2.178
379.95	2.110
380.21	2.047
380.48	1.892
380.74	1.709
381.01	1.768
381.28	1.641
381.54	1.543
381.81	1.369
382.07	1.493
382.34	1.443
382.60	1.555
382.87	1.530
383.14	1.574
383.40	1.556
383.67	1.759
383.93	1.763
384.20	1.761
384.46	1.855
384.73	1.889
385.00	1.791
385.26	1.818
385.53	1.808
385.79	1.759
386.06	1.754
386.32	1.732
386.59	1.653
386.86	1.772
387.12	1.894
387.39	1.844
387.65	1.965
387.92	1.942
388.18	1.845
388.45	1.855
388.71	1.934
388.98	2.007
389.25	2.102
389.51	2.113
389.78	2.208
390.04	2.211
390.31	2.352
390.57	2.341
390.84	2.551
391.10	2.664
391.37	2.776
391.64	2.893
391.90	2.857
392.17	2.861
392.43	2.922
392.70	2.806
392.96	2.888
393.23	2.904
393.49	2.963
393.76	2.920
394.02	3.081
394.29	3.100
394.56	3.026
394.82	3.036
395.09	3.218
395.35	3.404
395.62	3.540
395.88	3.605
396.15	3.712
396.41	3.741
396.68	3.878
396.94	3.887
397.21	3.946
397.47	4.188
397.74	4.466
398.00	4.506
398.27	4.548
398.53	4.614
398.80	4.758
399.07	4.914
399.33	5.163
399.60	5.313
399.86	5.526
400.13	5.743
400.39	5.897
400.66	6.033
400.92	6.263
401.19	6.448
401.45	6.633
401.72	6.864
401.98	7.021
402.25	7.163
402.51	7.362
402.78	7.482
403.04	7.649
403.31	7.776
403.57	7.899
403.84	8.014
404.10	8.137
404.37	8.309
404.63	8.411
404.90	8.574
405.16	8.668
405.43	8.823
405.69	8.993
405.96	9.224
406.22	9.471
406.49	9.720
406.75	9.971
407.02	10.216
407.28	10.517
407.55	10.853
407.81	11.141
408.08	11.395
408.34	11.604
408.61	11.800
408.87	11.916
409.14	12.076
409.40	12.267
409.67	12.453
409.93	12.733
410.20	12.945
410.46	13.104
410.73	13.267
410.99	13.518
411.26	13.812
411.52	14.123
411.79	14.414
412.05	14.646
412.32	14.836
412.58	15.088
412.85	15.293
413.11	15.574
413.38	15.825
413.64	16.070
413.91	16.327
414.17	16.522
414.44	16.719
414.70	17.004
414.97	17.244
415.23	17.587
415.50	17.847
415.76	18.079
416.02	18.203
416.29	18.412
416.55	18.592
416.82	18.858
417.08	19.047
417.35	19.272
417.61	19.517
417.88	19.826
418.14	20.004
418.41	20.278
418.67	20.525
418.94	20.796
419.20	21.113
419.47	21.491
419.73	21.737
419.99	22.040
420.26	22.354
420.52	22.638
420.79	22.875
421.05	23.145
421.32	23.401
421.58	23.698
421.85	24.031
422.11	24.322
422.38	24.563
422.64	24.931
422.90	25.292
423.17	25.641
423.43	25.940
423.70	26.347
423.96	26.734
424.23	27.110
424.49	27.464
424.76	27.833
425.02	28.232
425.29	28.684
425.55	29.070
425.81	29.509
426.08	29.945
426.34	30.365
426.61	30.721
426.87	31.159
427.14	31.570
427.40	32.070
427.66	32.589
427.93	33.078
428.19	33.535
428.46	33.976
428.72	34.403
428.99	34.836
429.25	35.335
429.52	35.864
429.78	36.352
430.04	36.860
430.31	37.310
430.57	37.731
430.84	38.154
431.10	38.620
431.36	39.088
431.63	39.504
431.89	39.980
432.16	40.405
432.42	40.746
432.69	41.110
432.95	41.480
433.21	41.843
433.48	42.223
433.74	42.484
434.01	42.738
434.27	43.004
434.54	43.336
434.80	43.558
435.06	43.798
435.33	44.045
435.59	44.241
435.86	44.477
436.12	44.627
436.38	44.787
436.65	44.987
436.91	45.123
437.18	45.302
437.44	45.461
437.70	45.671
437.97	45.790
438.23	45.958
438.50	46.176
438.76	46.320
439.02	46.469
439.29	46.603
439.55	46.730
439.82	46.906
440.08	47.062
440.34	47.183
440.61	47.278
440.87	47.483
441.14	47.613
441.40	47.748
441.66	47.884
441.93	48.015
442.19	48.156
442.46	48.333
442.72	48.489
442.98	48.603
443.25	48.720
443.51	48.893
443.78	49.052
444.04	49.213
444.30	49.349
444.57	49.538
444.83	49.803
445.09	50.076
445.36	50.344
445.62	50.631
445.89	50.932
446.15	51.268
446.41	51.562
446.68	51.867
446.94	52.229
447.21	52.601
447.47	52.913
447.73	53.265
448.00	53.572
448.26	53.944
448.52	54.340
448.79	54.760
449.05	55.190
449.31	55.676
449.58	56.129
449.84	56.593
450.11	57.072
450.37	57.593
450.63	58.099
450.90	58.623
451.16	59.089
451.42	59.583
451.69	60.101
451.95	60.619
452.21	61.062
452.48	61.575
452.74	62.107
453.01	62.643
453.27	63.194
453.53	63.713
453.80	64.212
454.06	64.684
454.32	65.064
454.59	65.459
454.85	65.855
455.11	66.317
455.38	66.747
455.64	67.121
455.90	67.433
456.17	67.780
456.43	68.134
456.69	68.420
456.96	68.730
457.22	69.139
457.49	69.476
457.75	69.740
458.01	69.999
458.28	70.201
458.54	70.400
458.80	70.557
459.07	70.637
459.33	70.705
459.59	70.806
459.86	70.811
460.12	70.747
460.38	70.710
460.65	70.694
460.91	70.617
461.17	70.533
461.44	70.427
461.70	70.356
461.96	70.256
462.23	70.096
462.49	69.888
462.75	69.799
463.02	69.668
463.28	69.497
463.54	69.298
463.81	69.072
464.07	68.855
464.33	68.618
464.59	68.295
464.86	67.998
465.12	67.739
465.38	67.565
465.65	67.340
465.91	67.110
466.17	66.859
466.44	66.669
466.70	66.496
466.96	66.303
467.23	66.130
467.49	66.012
467.75	65.843
468.02	65.670
468.28	65.492
468.54	65.246
468.80	65.065
469.07	64.895
469.33	64.660
469.59	64.487
469.86	64.366
470.12	64.278
470.38	64.146
470.65	64.096
470.91	64.024
471.17	63.913
471.44	63.889
471.70	63.874
471.96	63.876
472.22	63.879
472.49	63.908
472.75	63.911
473.01	63.885
473.28	63.943
473.54	64.001
473.80	64.087
474.06	64.199
474.33	64.278
474.59	64.324
474.85	64.434
475.12	64.598
475.38	64.751
475.64	64.900
475.90	65.065
476.17	65.256
476.43	65.432
476.69	65.651
476.96	65.856
477.22	66.083
477.48	66.402
477.74	66.658
478.01	66.940
478.27	67.192
478.53	67.454
478.80	67.762
479.06	68.047
479.32	68.341
479.58	68.631
479.85	68.950
480.11	69.313
480.37	69.622
480.63	69.992
480.90	70.369
481.16	70.774
481.42	71.172
481.69	71.568
481.95	71.946
482.21	72.330
482.47	72.747
482.74	73.179
483.00	73.629
483.26	74.130
483.52	74.604
483.79	75.036
484.05	75.477
484.31	75.941
484.57	76.426
484.84	76.889
485.10	77.353
485.36	77.782
485.62	78.186
485.89	78.565
486.15	78.931
486.41	79.293
486.67	79.642
486.94	79.927
487.20	80.212
487.46	80.504
487.72	80.817
487.99	81.137
488.25	81.430
488.51	81.741
488.77	82.029
489.04	82.236
489.30	82.391
489.56	82.539
489.82	82.739
490.09	82.877
490.35	82.929
490.61	83.022
490.87	83.081
491.14	83.138
491.40	83.187
491.66	83.166
491.92	83.132
492.18	83.104
492.45	83.027
492.71	82.883
492.97	82.782
493.23	82.726
493.50	82.600
493.76	82.448
494.02	82.258
494.28	82.082
494.55	81.962
494.81	81.829
495.07	81.696
495.33	81.579
495.59	81.463
495.86	81.249
496.12	80.989
496.38	80.681
496.64	80.408
496.91	80.140
497.17	79.824
497.43	79.480
497.69	79.150
497.95	78.772
498.22	78.400
498.48	78.046
498.74	77.729
499.00	77.403
499.26	77.121
499.53	76.763
499.79	76.433
500.05	76.079
500.31	75.759
500.57	75.453
500.84	75.177
501.10	74.900
501.36	74.577
501.62	74.284
501.88	74.022
502.15	73.757
502.41	73.522
502.67	73.262
502.93	73.008
503.19	72.708
503.46	72.422
503.72	72.140
503.98	71.882
504.24	71.654
504.50	71.428
504.77	71.172
505.03	70.920
505.29	70.707
505.55	70.512
505.81	70.323
506.08	70.112
506.34	69.887
506.60	69.718
506.86	69.581
507.12	69.484
507.39	69.378
507.65	69.298
507.91	69.216
508.17	69.136
508.43	69.072
508.69	69.007
508.96	68.953
509.22	68.913
509.48	68.872
509.74	68.796
510.00	68.703
510.26	68.625
510.53	68.562
510.79	68.528
511.05	68.503
511.31	68.505
511.57	68.562
511.84	68.663
512.10	68.752
512.36	68.802
512.62	68.851
512.88	68.886
513.14	68.991
513.41	69.110
513.67	69.250
513.93	69.422
514.19	69.644
514.45	69.851
514.71	70.054
514.97	70.294
515.24	70.552
515.50	70.825
515.76	71.142
516.02	71.410
516.28	71.639
516.54	71.850
516.81	72.023
517.07	72.125
517.33	72.241
517.59	72.376
517.85	72.518
518.11	72.729
518.37	72.947
518.64	73.173
518.90	73.398
519.16	73.642
519.42	73.896
519.68	74.176
519.94	74.531
520.20	74.894
520.47	75.228
520.73	75.556
520.99	75.829
521.25	76.130
521.51	76.405
521.77	76.718
522.03	77.012
522.30	77.287
522.56	77.543
522.82	77.763
523.08	77.980
523.34	78.212
523.60	78.450
523.86	78.708
524.12	78.939
524.39	79.185
524.65	79.430
524.91	79.720
525.17	80.037
525.43	80.355
525.69	80.642
525.95	80.918
526.21	81.196
526.48	81.490
526.74	81.778
527.00	82.086
527.26	82.406
527.52	82.703
527.78	82.968
528.04	83.215
528.30	83.420
528.57	83.619
528.83	83.786
529.09	83.953
529.35	84.093
529.61	84.213
529.87	84.336
530.13	84.431
530.39	84.487
530.65	84.522
530.92	84.519
531.18	84.547
531.44	84.629
531.70	84.725
531.96	84.847
532.22	84.977
532.48	85.076
532.74	85.106
533.00	85.141
533.26	85.179
533.53	85.264
533.79	85.372
534.05	85.443
534.31	85.452
534.57	85.476
534.83	85.447
535.09	85.388
535.35	85.325
535.61	85.267
535.87	85.182
536.13	85.099
536.40	84.942
536.66	84.770
536.92	84.602
537.18	84.451
537.44	84.292
537.70	84.127
537.96	83.952
538.22	83.773
538.48	83.583
538.74	83.388
539.00	83.178
539.26	83.007
539.53	82.866
539.79	82.761
540.05	82.604
